**********************************************
*******     Site #   1
PSA and Fouries apectra of trial num.     1
damping:   5%
 100 samples
Mag.          =      6.50
siteCoord1    =      0.36
siteCoord2    =      0.01
depth         =      3.00
fault Dis.(km)=    10.24
Hypo  Dis.(km)=    35.20
Input Parameters file =  M6d5S130_parameters.out                                                                                                 
 data format: (1x,f10.3, 1p, 1x,e11.4, 5x,e11.4, 2x,e11.4, 1x,e11.4)
   freq(Hz)     per(s) FAS(cm/sec) avgPSA(cm/s**2) avgPSV(cm/s)   avgSD(cm)
      0.100     10.000  6.9215E+00      3.4580E+00   5.5036E+00  8.7593E+00
      0.106      9.392  6.9215E+00      4.0980E+00   6.1253E+00  9.1555E+00
      0.113      8.820  7.6465E+00      4.7259E+00   6.6340E+00  9.3127E+00
      0.121      8.283  7.8181E+00      5.3381E+00   7.0375E+00  9.2780E+00
      0.129      7.779  8.3236E+00      5.8340E+00   7.2233E+00  8.9435E+00
      0.137      7.306  8.7859E+00      6.4504E+00   7.5005E+00  8.7217E+00
      0.146      6.862  9.0419E+00      7.3029E+00   7.9752E+00  8.7094E+00
      0.155      6.444  1.0067E+01      8.0312E+00   8.2369E+00  8.4479E+00
      0.165      6.052  1.1021E+01      9.3528E+00   9.0087E+00  8.6773E+00
      0.176      5.684  1.1781E+01      1.1006E+01   9.9564E+00  9.0067E+00
      0.187      5.338  1.3375E+01      1.2331E+01   1.0476E+01  8.9004E+00
      0.199      5.013  1.3809E+01      1.4056E+01   1.1215E+01  8.9480E+00
      0.212      4.708  1.3547E+01      1.4922E+01   1.1181E+01  8.3786E+00
      0.226      4.422  1.5326E+01      1.6427E+01   1.1560E+01  8.1354E+00
      0.241      4.153  1.4787E+01      1.7908E+01   1.1836E+01  7.8226E+00
      0.256      3.900  1.3827E+01      1.8122E+01   1.1248E+01  6.9819E+00
      0.273      3.663  1.2286E+01      1.9080E+01   1.1123E+01  6.4838E+00
      0.291      3.440  1.3741E+01      2.0826E+01   1.1402E+01  6.2421E+00
      0.310      3.231  1.3488E+01      2.2071E+01   1.1348E+01  5.8347E+00
      0.330      3.034  1.2416E+01      2.3342E+01   1.1271E+01  5.4426E+00
      0.351      2.849  1.3932E+01      2.7441E+01   1.2444E+01  5.6435E+00
      0.374      2.676  1.3998E+01      2.9931E+01   1.2748E+01  5.4293E+00
      0.398      2.513  1.7675E+01      3.5241E+01   1.4096E+01  5.6383E+00
      0.424      2.360  2.0000E+01      4.2266E+01   1.5877E+01  5.9644E+00
      0.451      2.217  2.3333E+01      5.2453E+01   1.8505E+01  6.5285E+00
      0.480      2.082  2.9328E+01      6.2919E+01   2.0847E+01  6.9073E+00
      0.511      1.955  2.7546E+01      7.1031E+01   2.2103E+01  6.8778E+00
      0.545      1.836  3.1774E+01      7.9155E+01   2.3132E+01  6.7601E+00
      0.580      1.724  3.6193E+01      9.3423E+01   2.5641E+01  7.0373E+00
      0.617      1.620  3.4134E+01      1.1199E+02   2.8866E+01  7.4403E+00
      0.657      1.521  3.2475E+01      1.3179E+02   3.1903E+01  7.7229E+00
      0.700      1.428  3.2902E+01      1.4906E+02   3.3888E+01  7.7043E+00
      0.745      1.342  3.3446E+01      1.6056E+02   3.4282E+01  7.3197E+00
      0.794      1.260  3.0648E+01      1.6385E+02   3.2855E+01  6.5882E+00
      0.845      1.183  3.3054E+01      1.5835E+02   2.9821E+01  5.6159E+00
      0.900      1.111  3.6312E+01      1.4179E+02   2.5077E+01  4.4353E+00
      0.958      1.044  3.4378E+01      1.2753E+02   2.1184E+01  3.5186E+00
      1.020      0.980  3.0413E+01      1.3587E+02   2.1195E+01  3.3063E+00
      1.086      0.921  2.7347E+01      1.6268E+02   2.3833E+01  3.4916E+00
      1.157      0.865  3.7622E+01      1.9383E+02   2.6670E+01  3.6695E+00
      1.232      0.812  5.7210E+01      2.4955E+02   3.2247E+01  4.1669E+00
      1.311      0.763  6.6999E+01      3.1449E+02   3.8165E+01  4.6316E+00
      1.396      0.716  6.3941E+01      3.4053E+02   3.8812E+01  4.4235E+00
      1.487      0.673  6.5938E+01      3.8453E+02   4.1160E+01  4.4057E+00
      1.583      0.632  5.6673E+01      4.3170E+02   4.3397E+01  4.3625E+00
      1.686      0.593  3.6475E+01      4.7041E+02   4.4411E+01  4.1928E+00
      1.795      0.557  6.3264E+01      5.0550E+02   4.4820E+01  3.9740E+00
      1.911      0.523  6.3413E+01      4.8435E+02   4.0332E+01  3.3584E+00
      2.035      0.491  4.6089E+01      4.4824E+02   3.5054E+01  2.7414E+00
      2.167      0.461  5.2652E+01      4.1418E+02   3.0419E+01  2.2342E+00
      2.307      0.433  2.2516E+01      3.7181E+02   2.5646E+01  1.7690E+00
      2.457      0.407  1.1785E+01      3.3561E+02   2.1741E+01  1.4084E+00
      2.616      0.382  1.1486E+01      3.0716E+02   1.8687E+01  1.1369E+00
      2.786      0.359  1.7649E+01      3.1535E+02   1.8018E+01  1.0295E+00
      2.966      0.337  3.1977E+01      4.1614E+02   2.2330E+01  1.1983E+00
      3.158      0.317  5.4332E+01      5.5196E+02   2.7817E+01  1.4018E+00
      3.363      0.297  4.7179E+01      5.7614E+02   2.7268E+01  1.2906E+00
      3.581      0.279  1.9348E+01      5.6501E+02   2.5114E+01  1.1163E+00
      3.813      0.262  1.7857E+01      5.8174E+02   2.4285E+01  1.0138E+00
      4.060      0.246  2.7944E+01      5.7934E+02   2.2713E+01  8.9047E-01
      4.323      0.231  4.5043E+01      6.7617E+02   2.4896E+01  9.1667E-01
      4.603      0.217  4.6649E+01      7.5098E+02   2.5969E+01  8.9798E-01
      4.901      0.204  4.0908E+01      8.6362E+02   2.8047E+01  9.1083E-01
      5.218      0.192  3.0564E+01      8.5739E+02   2.6150E+01  7.9757E-01
      5.556      0.180  3.4345E+01      8.0048E+02   2.2929E+01  6.5677E-01
      5.916      0.169  4.6499E+01      8.3796E+02   2.2542E+01  6.0641E-01
      6.300      0.159  6.3404E+01      9.2290E+02   2.3317E+01  5.8907E-01
      6.708      0.149  2.1611E+01      7.6388E+02   1.8125E+01  4.3004E-01
      7.142      0.140  1.6236E+01      6.2545E+02   1.3937E+01  3.1057E-01
      7.605      0.131  1.9220E+01      5.1014E+02   1.0676E+01  2.2342E-01
      8.098      0.123  1.2763E+01      5.1265E+02   1.0076E+01  1.9803E-01
      8.622      0.116  2.3255E+01      5.9504E+02   1.0984E+01  2.0274E-01
      9.181      0.109  2.2656E+01      8.9654E+02   1.5542E+01  2.6942E-01
      9.776      0.102  4.0365E+01      1.0193E+03   1.6595E+01  2.7018E-01
     10.409      0.096  1.5672E+01      1.0032E+03   1.5338E+01  2.3452E-01
     11.083      0.090  2.0023E+01      8.8166E+02   1.2660E+01  1.8180E-01
     11.801      0.085  7.0904E+00      7.1512E+02   9.6441E+00  1.3006E-01
     12.566      0.080  4.1437E+00      6.9765E+02   8.8361E+00  1.1191E-01
     13.380      0.075  5.9849E+00      6.8875E+02   8.1925E+00  9.7449E-02
     14.247      0.070  2.0145E+01      6.2756E+02   7.0105E+00  7.8315E-02
     15.170      0.066  2.0618E+01      5.6843E+02   5.9636E+00  6.2567E-02
     16.153      0.062  4.5947E+00      5.5142E+02   5.4331E+00  5.3533E-02
     17.199      0.058  7.6956E+00      5.1965E+02   4.8086E+00  4.4497E-02
     18.314      0.055  9.5225E+00      5.1022E+02   4.4341E+00  3.8535E-02
     19.500      0.051  7.3715E+00      5.1986E+02   4.2430E+00  3.4630E-02
     20.763      0.048  6.5424E+00      5.0414E+02   3.8643E+00  2.9621E-02
     22.109      0.045  5.4316E+00      3.8336E+02   2.7597E+00  1.9867E-02
     23.541      0.042  2.4008E+00      3.8914E+02   2.6309E+00  1.7787E-02
     25.066      0.040  4.7497E+00      3.8680E+02   2.4560E+00  1.5594E-02
     26.690      0.037  2.9035E+00      3.3529E+02   1.9994E+00  1.1923E-02
     28.419      0.035  3.6755E+00      3.5129E+02   1.9673E+00  1.1018E-02
     30.260      0.033  7.5810E-01      3.4074E+02   1.7921E+00  9.4258E-03
     32.221      0.031  1.1980E+00      3.3560E+02   1.6577E+00  8.1882E-03
     34.308      0.029  2.1418E+00      3.2267E+02   1.4968E+00  6.9439E-03
     36.531      0.027  1.0663E+00      3.3039E+02   1.4394E+00  6.2712E-03
     38.897      0.026  6.0018E-01      3.2640E+02   1.3355E+00  5.4644E-03
     41.417      0.024  3.6240E-01      3.1972E+02   1.2286E+00  4.7210E-03
     44.101      0.023  5.3486E-01      3.1958E+02   1.1533E+00  4.1622E-03
     46.958      0.021  2.0842E-01      3.2127E+02   1.0889E+00  3.6905E-03
     50.000      0.020  3.3361E-01      3.1632E+02   1.0069E+00  3.2050E-03
 
 
