**********************************************
*******     Site #   2
PSA and Fouries apectra of trial num.     1
damping:   5%
 100 samples
Mag.          =      6.50
siteCoord1    =      0.72
siteCoord2    =      0.01
depth         =      3.00
fault Dis.(km)=    49.56
Hypo  Dis.(km)=    75.03
Input Parameters file =  M6d5S130_parameters.out                                                                                                 
 data format: (1x,f10.3, 1p, 1x,e11.4, 5x,e11.4, 2x,e11.4, 1x,e11.4)
   freq(Hz)     per(s) FAS(cm/sec) avgPSA(cm/s**2) avgPSV(cm/s)   avgSD(cm)
      0.100     10.000  6.2391E-01      8.2020E-01   1.3054E+00  2.0776E+00
      0.106      9.392  6.2391E-01      1.0637E+00   1.5899E+00  2.3764E+00
      0.113      8.820  6.0846E-01      1.2763E+00   1.7917E+00  2.5151E+00
      0.121      8.283  7.1221E-01      1.4129E+00   1.8627E+00  2.4556E+00
      0.129      7.779  1.0786E+00      1.5350E+00   1.9005E+00  2.3531E+00
      0.137      7.306  9.6095E-01      1.7552E+00   2.0409E+00  2.3732E+00
      0.146      6.862  1.4493E+00      1.9803E+00   2.1626E+00  2.3617E+00
      0.155      6.444  2.1339E+00      2.5150E+00   2.5794E+00  2.6455E+00
      0.165      6.052  2.5438E+00      3.3482E+00   3.2251E+00  3.1064E+00
      0.176      5.684  3.1092E+00      3.9279E+00   3.5532E+00  3.2143E+00
      0.187      5.338  3.5593E+00      4.5258E+00   3.8450E+00  3.2666E+00
      0.199      5.013  3.9988E+00      5.1755E+00   4.1294E+00  3.2948E+00
      0.212      4.708  4.1067E+00      5.5271E+00   4.1416E+00  3.1034E+00
      0.226      4.422  4.9262E+00      6.1540E+00   4.3308E+00  3.0477E+00
      0.241      4.153  5.6078E+00      7.2473E+00   4.7899E+00  3.1657E+00
      0.256      3.900  6.6049E+00      8.5311E+00   5.2953E+00  3.2868E+00
      0.273      3.663  6.8638E+00      1.0367E+01   6.0432E+00  3.5228E+00
      0.291      3.440  7.6776E+00      1.3279E+01   7.2699E+00  3.9800E+00
      0.310      3.231  8.6910E+00      1.5980E+01   8.2164E+00  4.2246E+00
      0.330      3.034  9.6595E+00      1.8978E+01   9.1641E+00  4.4251E+00
      0.351      2.849  1.0685E+01      2.2461E+01   1.0186E+01  4.6193E+00
      0.374      2.676  1.1911E+01      2.5901E+01   1.1031E+01  4.6983E+00
      0.398      2.513  1.3353E+01      2.7604E+01   1.1041E+01  4.4165E+00
      0.424      2.360  1.5559E+01      3.2269E+01   1.2122E+01  4.5536E+00
      0.451      2.217  1.6832E+01      3.4702E+01   1.2243E+01  4.3192E+00
      0.480      2.082  1.8845E+01      3.5425E+01   1.1737E+01  3.8889E+00
      0.511      1.955  1.5162E+01      3.3560E+01   1.0443E+01  3.2495E+00
      0.545      1.836  1.7820E+01      3.3237E+01   9.7132E+00  2.8386E+00
      0.580      1.724  1.0843E+01      2.9710E+01   8.1542E+00  2.2380E+00
      0.617      1.620  8.2840E+00      3.1819E+01   8.2015E+00  2.1140E+00
      0.657      1.521  4.4907E+00      3.5907E+01   8.6921E+00  2.1041E+00
      0.700      1.428  4.9196E+00      3.8902E+01   8.8442E+00  2.0107E+00
      0.745      1.342  1.3314E+01      4.1520E+01   8.8652E+00  1.8928E+00
      0.794      1.260  1.4786E+01      4.3652E+01   8.7531E+00  1.7552E+00
      0.845      1.183  1.2593E+01      4.2966E+01   8.0915E+00  1.5238E+00
      0.900      1.111  1.0000E+01      3.7936E+01   6.7095E+00  1.1867E+00
      0.958      1.044  5.7893E+00      3.1228E+01   5.1871E+00  8.6159E-01
      1.020      0.980  2.4347E+00      2.9264E+01   4.5651E+00  7.1215E-01
      1.086      0.921  3.7524E+00      3.2145E+01   4.7093E+00  6.8994E-01
      1.157      0.865  3.2163E+00      3.5329E+01   4.8609E+00  6.6882E-01
      1.232      0.812  8.4841E+00      3.6770E+01   4.7514E+00  6.1397E-01
      1.311      0.763  7.1236E+00      3.6822E+01   4.4686E+00  5.4230E-01
      1.396      0.716  3.9690E+00      4.1643E+01   4.7462E+00  5.4094E-01
      1.487      0.673  6.3358E+00      4.9147E+01   5.2606E+00  5.6309E-01
      1.583      0.632  1.0742E+01      5.6659E+01   5.6957E+00  5.7256E-01
      1.686      0.593  1.1263E+01      6.9187E+01   6.5319E+00  6.1668E-01
      1.795      0.557  9.2004E+00      6.8683E+01   6.0898E+00  5.3995E-01
      1.911      0.523  2.2820E+00      8.0864E+01   6.7336E+00  5.6071E-01
      2.035      0.491  9.4562E+00      8.6758E+01   6.7848E+00  5.3060E-01
      2.167      0.461  9.8315E+00      8.5556E+01   6.2837E+00  4.6151E-01
      2.307      0.433  1.4047E+01      1.0613E+02   7.3203E+00  5.0493E-01
      2.457      0.407  1.1723E+01      1.0021E+02   6.4916E+00  4.2053E-01
      2.616      0.382  7.9215E+00      1.0908E+02   6.6361E+00  4.0373E-01
      2.786      0.359  1.5232E+01      1.2143E+02   6.9381E+00  3.9642E-01
      2.966      0.337  3.7174E+00      1.3766E+02   7.3871E+00  3.9640E-01
      3.158      0.317  1.9360E+01      1.3875E+02   6.9923E+00  3.5238E-01
      3.363      0.297  1.5416E+01      1.3674E+02   6.4718E+00  3.0630E-01
      3.581      0.279  3.5074E+00      1.3060E+02   5.8052E+00  2.5804E-01
      3.813      0.262  7.9770E+00      1.3817E+02   5.7679E+00  2.4078E-01
      4.060      0.246  1.0949E+01      1.3537E+02   5.3072E+00  2.0807E-01
      4.323      0.231  5.9824E+00      1.4590E+02   5.3718E+00  1.9779E-01
      4.603      0.217  1.2630E+01      1.5305E+02   5.2925E+00  1.8301E-01
      4.901      0.204  1.0297E+01      1.5999E+02   5.1958E+00  1.6873E-01
      5.218      0.192  6.7954E+00      1.3431E+02   4.0963E+00  1.2493E-01
      5.556      0.180  6.8540E+00      1.6104E+02   4.6127E+00  1.3212E-01
      5.916      0.169  1.5275E+01      1.6638E+02   4.4759E+00  1.2041E-01
      6.300      0.159  4.9483E+00      1.2608E+02   3.1854E+00  8.0478E-02
      6.708      0.149  2.0430E+00      1.0468E+02   2.4837E+00  5.8931E-02
      7.142      0.140  2.2303E+00      1.0299E+02   2.2951E+00  5.1142E-02
      7.605      0.131  2.7833E+00      1.1373E+02   2.3802E+00  4.9811E-02
      8.098      0.123  1.9510E+00      1.1108E+02   2.1831E+00  4.2907E-02
      8.622      0.116  4.8736E+00      1.3985E+02   2.5813E+00  4.7647E-02
      9.181      0.109  7.3930E+00      1.4583E+02   2.5280E+00  4.3823E-02
      9.776      0.102  1.0648E+00      1.5714E+02   2.5584E+00  4.1652E-02
     10.409      0.096  5.3420E+00      1.5221E+02   2.3272E+00  3.5583E-02
     11.083      0.090  4.8968E+00      1.3037E+02   1.8721E+00  2.6883E-02
     11.801      0.085  2.0708E+00      9.9314E+01   1.3393E+00  1.8062E-02
     12.566      0.080  3.6939E+00      1.1390E+02   1.4426E+00  1.8271E-02
     13.380      0.075  2.7295E+00      1.2140E+02   1.4440E+00  1.7176E-02
     14.247      0.070  1.6418E+00      1.0888E+02   1.2163E+00  1.3587E-02
     15.170      0.066  3.5977E-01      1.1005E+02   1.1546E+00  1.2113E-02
     16.153      0.062  2.7410E+00      1.0454E+02   1.0301E+00  1.0149E-02
     17.199      0.058  1.1607E+00      9.8997E+01   9.1607E-01  8.4770E-03
     18.314      0.055  1.8506E+00      1.0967E+02   9.5313E-01  8.2832E-03
     19.500      0.051  1.7173E+00      1.0849E+02   8.8546E-01  7.2269E-03
     20.763      0.048  1.7573E+00      1.0584E+02   8.1128E-01  6.2186E-03
     22.109      0.045  9.8638E-01      9.6176E+01   6.9235E-01  4.9841E-03
     23.541      0.042  8.9889E-01      9.3557E+01   6.3252E-01  4.2763E-03
     25.066      0.040  9.7615E-01      9.1346E+01   5.7999E-01  3.6826E-03
     26.690      0.037  2.8856E-01      9.1330E+01   5.4461E-01  3.2476E-03
     28.419      0.035  8.5146E-02      8.8535E+01   4.9582E-01  2.7768E-03
     30.260      0.033  1.7253E-01      8.1312E+01   4.2766E-01  2.2493E-03
     32.221      0.031  1.5500E-01      7.8706E+01   3.8877E-01  1.9203E-03
     34.308      0.029  2.6285E-01      7.4923E+01   3.4757E-01  1.6124E-03
     36.531      0.027  1.1109E-01      7.4185E+01   3.2321E-01  1.4081E-03
     38.897      0.026  5.4407E-02      7.1861E+01   2.9403E-01  1.2031E-03
     41.417      0.024  5.9068E-02      7.1462E+01   2.7461E-01  1.0552E-03
     44.101      0.023  2.2242E-02      7.0455E+01   2.5426E-01  9.1761E-04
     46.958      0.021  1.3878E-02      7.0647E+01   2.3944E-01  8.1155E-04
     50.000      0.020  1.9775E-02      7.0653E+01   2.2490E-01  7.1587E-04
 
 
