**********************************************
*******     Site #   2
PSA and Fouries apectra of trial num.     3
damping:   5%
 100 samples
Mag.          =      6.50
siteCoord1    =      0.72
siteCoord2    =      0.01
depth         =      3.00
fault Dis.(km)=    49.56
Hypo  Dis.(km)=    75.03
Input Parameters file =  M6d5S130_parameters.out                                                                                                 
 data format: (1x,f10.3, 1p, 1x,e11.4, 5x,e11.4, 2x,e11.4, 1x,e11.4)
   freq(Hz)     per(s) FAS(cm/sec) avgPSA(cm/s**2) avgPSV(cm/s)   avgSD(cm)
      0.100     10.000  4.4518E+00      2.4529E+00   3.9039E+00  6.2133E+00
      0.106      9.392  4.4518E+00      3.0486E+00   4.5569E+00  6.8112E+00
      0.113      8.820  4.9794E+00      3.6132E+00   5.0721E+00  7.1201E+00
      0.121      8.283  5.5537E+00      4.1576E+00   5.4813E+00  7.2263E+00
      0.129      7.779  5.9531E+00      4.6864E+00   5.8024E+00  7.1842E+00
      0.137      7.306  6.2230E+00      5.2162E+00   6.0655E+00  7.0530E+00
      0.146      6.862  7.6256E+00      6.1752E+00   6.7436E+00  7.3645E+00
      0.155      6.444  8.4135E+00      7.1684E+00   7.3520E+00  7.5404E+00
      0.165      6.052  9.1132E+00      8.0552E+00   7.7589E+00  7.4735E+00
      0.176      5.684  1.0000E+01      8.8522E+00   8.0078E+00  7.2439E+00
      0.187      5.338  1.0321E+01      1.0052E+01   8.5397E+00  7.2550E+00
      0.199      5.013  1.0741E+01      1.0951E+01   8.7375E+00  6.9715E+00
      0.212      4.708  1.1130E+01      1.1799E+01   8.8415E+00  6.6252E+00
      0.226      4.422  1.1465E+01      1.3413E+01   9.4395E+00  6.6429E+00
      0.241      4.153  1.2457E+01      1.5373E+01   1.0160E+01  6.7150E+00
      0.256      3.900  1.2989E+01      1.7070E+01   1.0596E+01  6.5768E+00
      0.273      3.663  1.3246E+01      1.8367E+01   1.0707E+01  6.2415E+00
      0.291      3.440  1.2585E+01      1.8879E+01   1.0335E+01  5.6584E+00
      0.310      3.231  1.1925E+01      1.8849E+01   9.6913E+00  4.9829E+00
      0.330      3.034  1.0842E+01      1.8610E+01   8.9864E+00  4.3393E+00
      0.351      2.849  1.0126E+01      1.7764E+01   8.0559E+00  3.6533E+00
      0.374      2.676  1.1079E+01      1.7096E+01   7.2813E+00  3.1011E+00
      0.398      2.513  7.9824E+00      1.6237E+01   6.4947E+00  2.5978E+00
      0.424      2.360  5.9022E+00      1.5843E+01   5.9513E+00  2.2356E+00
      0.451      2.217  3.2572E+00      1.6407E+01   5.7883E+00  2.0421E+00
      0.480      2.082  3.1066E+00      1.7378E+01   5.7579E+00  1.9078E+00
      0.511      1.955  3.0036E+00      1.7557E+01   5.4633E+00  1.7000E+00
      0.545      1.836  2.9971E+00      1.8213E+01   5.3224E+00  1.5554E+00
      0.580      1.724  4.4710E+00      1.8644E+01   5.1169E+00  1.4044E+00
      0.617      1.620  7.2951E+00      1.6900E+01   4.3561E+00  1.1228E+00
      0.657      1.521  7.4352E+00      1.8912E+01   4.5781E+00  1.1082E+00
      0.700      1.428  8.6331E+00      2.4365E+01   5.5394E+00  1.2594E+00
      0.745      1.342  1.1121E+01      2.9262E+01   6.2479E+00  1.3340E+00
      0.794      1.260  1.1165E+01      3.3446E+01   6.7066E+00  1.3448E+00
      0.845      1.183  1.3203E+01      3.8939E+01   7.3331E+00  1.3810E+00
      0.900      1.111  8.3633E+00      5.1025E+01   9.0244E+00  1.5961E+00
      0.958      1.044  8.2047E+00      6.6617E+01   1.1065E+01  1.8380E+00
      1.020      0.980  7.6142E+00      7.9579E+01   1.2414E+01  1.9365E+00
      1.086      0.921  9.1108E+00      9.3019E+01   1.3628E+01  1.9965E+00
      1.157      0.865  1.3951E+01      1.0365E+02   1.4262E+01  1.9623E+00
      1.232      0.812  2.4824E+01      1.0949E+02   1.4148E+01  1.8281E+00
      1.311      0.763  2.8966E+01      1.2305E+02   1.4933E+01  1.8122E+00
      1.396      0.716  2.9310E+01      1.3310E+02   1.5169E+01  1.7289E+00
      1.487      0.673  2.4233E+01      1.2746E+02   1.3643E+01  1.4603E+00
      1.583      0.632  9.0672E+00      1.1222E+02   1.1281E+01  1.1340E+00
      1.686      0.593  5.8099E+00      9.9412E+01   9.3854E+00  8.8607E-01
      1.795      0.557  1.4265E+01      1.0901E+02   9.6657E+00  8.5701E-01
      1.911      0.523  1.8326E+01      1.2303E+02   1.0245E+01  8.5310E-01
      2.035      0.491  1.5536E+01      1.2753E+02   9.9730E+00  7.7993E-01
      2.167      0.461  1.4131E+01      1.3155E+02   9.6621E+00  7.0964E-01
      2.307      0.433  8.5461E+00      1.3568E+02   9.3588E+00  6.4554E-01
      2.457      0.407  9.5314E+00      1.2317E+02   7.9787E+00  5.1686E-01
      2.616      0.382  5.6488E+00      1.0209E+02   6.2108E+00  3.7786E-01
      2.786      0.359  3.9005E+00      9.6540E+01   5.5160E+00  3.1517E-01
      2.966      0.337  1.0163E+01      1.0560E+02   5.6666E+00  3.0407E-01
      3.158      0.317  6.5925E+00      1.2711E+02   6.4055E+00  3.2281E-01
      3.363      0.297  7.4029E+00      1.1793E+02   5.5813E+00  2.6416E-01
      3.581      0.279  7.5353E+00      1.1794E+02   5.2424E+00  2.3302E-01
      3.813      0.262  7.8929E+00      1.4374E+02   6.0003E+00  2.5048E-01
      4.060      0.246  1.6482E+01      1.8317E+02   7.1813E+00  2.8154E-01
      4.323      0.231  1.5218E+01      1.9236E+02   7.0827E+00  2.6078E-01
      4.603      0.217  1.0473E+01      1.6662E+02   5.7615E+00  1.9923E-01
      4.901      0.204  3.3261E+00      1.2193E+02   3.9597E+00  1.2859E-01
      5.218      0.192  2.2958E+00      1.1455E+02   3.4938E+00  1.0656E-01
      5.556      0.180  6.2353E+00      1.4820E+02   4.2450E+00  1.2159E-01
      5.916      0.169  6.3414E+00      1.8175E+02   4.8893E+00  1.3153E-01
      6.300      0.159  8.9464E+00      1.8076E+02   4.5668E+00  1.1538E-01
      6.708      0.149  1.6035E+00      1.5349E+02   3.6419E+00  8.6412E-02
      7.142      0.140  1.1413E+01      1.5822E+02   3.5257E+00  7.8564E-02
      7.605      0.131  2.6727E+00      1.2770E+02   2.6725E+00  5.5929E-02
      8.098      0.123  1.7624E+00      1.3075E+02   2.5697E+00  5.0506E-02
      8.622      0.116  3.4440E+00      1.4294E+02   2.6384E+00  4.8700E-02
      9.181      0.109  5.5123E+00      1.3310E+02   2.3074E+00  3.9999E-02
      9.776      0.102  6.0256E+00      1.4525E+02   2.3648E+00  3.8501E-02
     10.409      0.096  4.6970E+00      1.3278E+02   2.0302E+00  3.1042E-02
     11.083      0.090  2.1078E+00      1.3186E+02   1.8935E+00  2.7190E-02
     11.801      0.085  1.7607E+00      1.3320E+02   1.7963E+00  2.4225E-02
     12.566      0.080  2.0238E+00      1.4007E+02   1.7740E+00  2.2469E-02
     13.380      0.075  2.8669E+00      1.2917E+02   1.5365E+00  1.8277E-02
     14.247      0.070  7.5815E-01      1.1863E+02   1.3253E+00  1.4805E-02
     15.170      0.066  1.3541E+00      1.0848E+02   1.1381E+00  1.1940E-02
     16.153      0.062  1.1780E+00      9.7770E+01   9.6333E-01  9.4918E-03
     17.199      0.058  1.7274E+00      9.6092E+01   8.8920E-01  8.2282E-03
     18.314      0.055  2.0938E+00      9.5875E+01   8.3321E-01  7.2410E-03
     19.500      0.051  6.6677E-01      9.3126E+01   7.6008E-01  6.2036E-03
     20.763      0.048  3.5745E-01      8.5443E+01   6.5493E-01  5.0202E-03
     22.109      0.045  7.3846E-01      8.0650E+01   5.8058E-01  4.1795E-03
     23.541      0.042  4.4226E-01      7.2077E+01   4.8730E-01  3.2945E-03
     25.066      0.040  6.4706E-01      7.9020E+01   5.0173E-01  3.1857E-03
     26.690      0.037  1.1235E-01      7.8488E+01   4.6803E-01  2.7909E-03
     28.419      0.035  1.1289E-01      7.6824E+01   4.3024E-01  2.4095E-03
     30.260      0.033  1.8011E-01      7.5775E+01   3.9854E-01  2.0962E-03
     32.221      0.031  2.2520E-01      7.2776E+01   3.5948E-01  1.7757E-03
     34.308      0.029  9.0002E-02      6.9712E+01   3.2339E-01  1.5002E-03
     36.531      0.027  1.6816E-01      6.8327E+01   2.9768E-01  1.2969E-03
     38.897      0.026  9.0925E-02      6.9530E+01   2.8449E-01  1.1641E-03
     41.417      0.024  7.1124E-02      6.9643E+01   2.6762E-01  1.0284E-03
     44.101      0.023  1.4106E-02      7.0075E+01   2.5289E-01  9.1266E-04
     46.958      0.021  1.2264E-02      6.9295E+01   2.3486E-01  7.9603E-04
     50.000      0.020  2.1700E-02      6.8625E+01   2.1844E-01  6.9532E-04
 
 
